?
Axis	Energy	Elements=	1361
Axis	Position	Elements=	1
Axis	X	Elements=	1
Axis	Y	Elements=	1

C:\Users\AG Wittstock\Documents\Iza\06_27.01.2017\AgProbe_01\Mono 250µm\Multi Point\Survey.VGD


	Position (Pos)\	Pt #002	
	X (X)\µm	22667.7	
	Y (Y)\µm	7958.70	
Binding Energy (E)	
eV		Counts / s
1350.00		2525.77	
1349.00		2620.48	
1348.00		2717.87	
1347.00		2422.69	
1346.00		2397.59	
1345.00		2221.22	
1344.00		2401.27	
1343.00		2460.84	
1342.00		1952.14	
1341.00		2128.51	
1340.00		2761.38	
1339.00		2452.48	
1338.00		2541.83	
1337.00		2687.75	
1336.00		2774.77	
1335.00		2600.07	
1334.00		2697.79	
1333.00		2039.16	
1332.00		1927.04	
1331.00		2520.08	
1330.00		2329.32	
1329.00		1722.89	
1328.00		2228.92	
1327.00		2393.24	
1326.00		2247.66	
1325.00		2655.29	
1324.00		2722.22	
1323.00		2042.50	
1322.00		1915.66	
1321.00		2327.31	
1320.00		2403.95	
1319.00		2249.33	
1318.00		2609.44	
1317.00		2387.88	
1316.00		2272.09	
1315.00		2584.34	
1314.00		1901.61	
1313.00		2365.46	
1312.00		2230.25	
1311.00		1995.98	
1310.00		2131.86	
1309.00		1763.72	
1308.00		1887.22	
1307.00		1686.75	
1306.00		1771.75	
1305.00		1908.30	
1304.00		2516.06	
1303.00		2513.39	
1302.00		2283.47	
1301.00		2545.52	
1300.00		1994.98	
1299.00		1779.12	
1298.00		2103.41	
1297.00		2062.58	
1296.00		2053.88	
1295.00		2250.33	
1294.00		1983.60	
1293.00		2033.47	
1292.00		2056.22	
1291.00		2039.49	
1290.00		2558.90	
1289.00		2285.14	
1288.00		1906.63	
1287.00		2120.82	
1286.00		2258.03	
1285.00		2157.97	
1284.00		2307.56	
1283.00		2071.29	
1282.00		2298.86	
1281.00		1851.74	
1280.00		1752.01	
1279.00		2244.98	
1278.00		2477.91	
1277.00		2409.30	
1276.00		1966.53	
1275.00		2170.35	
1274.00		2038.15	
1273.00		1716.53	
1272.00		2057.90	
1271.00		2137.22	
1270.00		1745.98	
1269.00		1773.09	
1268.00		2212.52	
1267.00		2175.70	
1266.00		1640.90	
1265.00		1907.63	
1264.00		1757.36	
1263.00		2061.58	
1262.00		2271.75	
1261.00		1948.46	
1260.00		1574.97	
1259.00		2250.67	
1258.00		1933.73	
1257.00		2398.59	
1256.00		1829.65	
1255.00		2250.33	
1254.00		1784.81	
1253.00		1824.30	
1252.00		1609.10	
1251.00		2020.08	
1250.00		1863.12	
1249.00		2072.62	
1248.00		2145.58	
1247.00		1807.23	
1246.00		1709.17	
1245.00		1717.54	
1244.00		1820.28	
1243.00		1614.46	
1242.00		1956.83	
1241.00		1868.81	
1240.00		1751.00	
1239.00		1892.24	
1238.00		1842.03	
1237.00		1767.74	
1236.00		1711.18	
1235.00		2037.82	
1234.00		2112.12	
1233.00		2116.80	
1232.00		1938.09	
1231.00		1825.97	
1230.00		2052.54	
1229.00		1841.03	
1228.00		1717.20	
1227.00		1799.20	
1226.00		1949.46	
1225.00		1681.39	
1224.00		2005.69	
1223.00		1775.77	
1222.00		2173.69	
1221.00		1976.91	
1220.00		1630.86	
1219.00		1498.66	
1218.00		1952.81	
1217.00		1796.52	
1216.00		1664.99	
1215.00		1741.97	
1214.00		1721.55	
1213.00		1551.54	
1212.00		1478.92	
1211.00		1659.64	
1210.00		1452.14	
1209.00		1603.75	
1208.00		1513.05	
1207.00		1769.08	
1206.00		1991.30	
1205.00		1781.46	
1204.00		1433.73	
1203.00		1508.03	
1202.00		1674.36	
1201.00		1731.26	
1200.00		1422.02	
1199.00		1690.76	
1198.00		1622.49	
1197.00		2021.08	
1196.00		1532.13	
1195.00		1432.06	
1194.00		1305.22	
1193.00		1922.69	
1192.00		1640.90	
1191.00		1629.85	
1190.00		1636.55	
1189.00		1717.87	
1188.00		1625.50	
1187.00		1677.38	
1186.00		1445.11	
1185.00		1681.73	
1184.00		1334.67	
1183.00		1395.58	
1182.00		1718.21	
1181.00		1430.39	
1180.00		1126.51	
1179.00		1332.66	
1178.00		1644.24	
1177.00		1151.94	
1176.00		1196.45	
1175.00		1379.52	
1174.00		1743.64	
1173.00		1435.41	
1172.00		1011.71	
1171.00		1201.47	
1170.00		1082.66	
1169.00		1387.55	
1168.00		1422.69	
1167.00		1267.07	
1166.00		1327.64	
1165.00		1302.21	
1164.00		1190.76	
1163.00		1169.34	
1162.00		1240.29	
1161.00		1493.98	
1160.00		1690.09	
1159.00		1163.65	
1158.00		1382.20	
1157.00		1288.82	
1156.00		1230.92	
1155.00		1084.34	
1154.00		1136.21	
1153.00		1343.71	
1152.00		1113.79	
1151.00		868.809	
1150.00		1401.27	
1149.00		1156.63	
1148.00		1389.56	
1147.00		1334.00	
1146.00		1372.16	
1145.00		1356.43	
1144.00		1252.34	
1143.00		944.110	
1142.00		1340.70	
1141.00		1135.88	
1140.00		1132.86	
1139.00		1321.29	
1138.00		1370.82	
1137.00		1274.43	
1136.00		1517.40	
1135.00		1546.52	
1134.00		1433.73	
1133.00		1310.24	
1132.00		1463.52	
1131.00		1371.15	
1130.00		1292.50	
1129.00		1462.52	
1128.00		1224.56	
1127.00		941.767	
1126.00		890.228	
1125.00		1184.40	
1124.00		787.818	
1123.00		896.921	
1122.00		975.904	
1121.00		870.817	
1120.00		1031.79	
1119.00		826.305	
1118.00		682.396	
1117.00		848.059	
1116.00		959.839	
1115.00		807.229	
1114.00		706.493	
1113.00		954.819	
1112.00		941.432	
1111.00		827.309	
1110.00		846.386	
1109.00		855.756	
1108.00		752.343	
1107.00		746.988	
1106.00		817.604	
1105.00		1044.18	
1104.00		1067.60	
1103.00		1113.79	
1102.00		978.916	
1101.00		782.798	
1100.00		1002.68	
1099.00		935.408	
1098.00		877.175	
1097.00		835.676	
1096.00		780.120	
1095.00		904.284	
1094.00		788.487	
1093.00		760.375	
1092.00		857.764	
1091.00		838.353	
1090.00		889.893	
1089.00		1001.00	
1088.00		1087.01	
1087.00		992.637	
1086.00		826.305	
1085.00		949.465	
1084.00		1036.48	
1083.00		940.428	
1082.00		859.438	
1081.00		859.438	
1080.00		683.735	
1079.00		746.319	
1078.00		652.945	
1077.00		1033.47	
1076.00		991.633	
1075.00		788.487	
1074.00		638.554	
1073.00		1040.50	
1072.00		995.315	
1071.00		719.880	
1070.00		783.802	
1069.00		1183.73	
1068.00		1013.39	
1067.00		785.475	
1066.00		961.178	
1065.00		753.347	
1064.00		1090.03	
1063.00		788.487	
1062.00		807.898	
1061.00		762.383	
1060.00		686.078	
1059.00		905.622	
1058.00		827.979	
1057.00		756.693	
1056.00		1000.33	
1055.00		1191.77	
1054.00		936.412	
1053.00		651.941	
1052.00		688.755	
1051.00		970.884	
1050.00		950.803	
1049.00		729.585	
1048.00		966.533	
1047.00		682.062	
1046.00		726.573	
1045.00		535.141	
1044.00		657.965	
1043.00		737.952	
1042.00		963.186	
1041.00		1286.48	
1040.00		852.410	
1039.00		820.950	
1038.00		949.799	
1037.00		1204.82	
1036.00		726.908	
1035.00		688.755	
1034.00		811.914	
1033.00		964.190	
1032.00		990.629	
1031.00		1056.56	
1030.00		1011.38	
1029.00		961.513	
1028.00		907.631	
1027.00		1072.62	
1026.00		1089.69	
1025.00		1163.32	
1024.00		1018.74	
1023.00		1060.58	
1022.00		1059.91	
1021.00		1105.09	
1020.00		1071.29	
1019.00		1051.54	
1018.00		1118.81	
1017.00		1217.54	
1016.00		1106.76	
1015.00		898.929	
1014.00		1149.93	
1013.00		881.191	
1012.00		865.462	
1011.00		1034.14	
1010.00		1130.86	
1009.00		979.250	
1008.00		707.162	
1007.00		981.593	
1006.00		927.376	
1005.00		898.594	
1004.00		732.932	
1003.00		847.724	
1002.00		1162.65	
1001.00		1070.62	
1000.00		918.675	
999.000		955.489	
998.000		845.716	
997.000		713.186	
996.000		716.533	
995.000		892.570	
994.000		901.272	
993.000		761.714	
992.000		967.871	
991.000		1202.48	
990.000		971.553	
989.000		842.035	
988.000		684.739	
987.000		1002.01	
986.000		1104.75	
985.000		951.807	
984.000		839.357	
983.000		892.905	
982.000		814.257	
981.000		863.788	
980.000		831.995	
979.000		904.618	
978.000		691.098	
977.000		600.402	
976.000		939.090	
975.000		1007.70	
974.000		1114.79	
973.000		968.541	
972.000		861.780	
971.000		1101.74	
970.000		959.505	
969.000		808.568	
968.000		667.336	
967.000		867.805	
966.000		826.305	
965.000		957.162	
964.000		928.715	
963.000		978.246	
962.000		828.313	
961.000		826.640	
960.000		690.763	
959.000		975.234	
958.000		916.667	
957.000		1099.06	
956.000		662.985	
955.000		973.226	
954.000		803.882	
953.000		1210.84	
952.000		1047.19	
951.000		1032.46	
950.000		854.752	
949.000		942.771	
948.000		746.653	
947.000		977.242	
946.000		896.921	
945.000		922.021	
944.000		951.473	
943.000		839.692	
942.000		790.495	
941.000		746.653	
940.000		883.199	
939.000		967.537	
938.000		1038.15	
937.000		962.182	
936.000		1017.07	
935.000		1141.57	
934.000		911.981	
933.000		920.348	
932.000		748.661	
931.000		874.833	
930.000		839.023	
929.000		1015.39	
928.000		846.720	
927.000		780.120	
926.000		992.303	
925.000		826.975	
924.000		803.548	
923.000		851.406	
922.000		1065.60	
921.000		990.964	
920.000		939.759	
919.000		1021.42	
918.000		1077.64	
917.000		860.442	
916.000		820.950	
915.000		999.331	
914.000		882.195	
913.000		1054.89	
912.000		952.811	
911.000		806.894	
910.000		1038.49	
909.000		784.471	
908.000		863.454	
907.000		1015.06	
906.000		1164.32	
905.000		1101.07	
904.000		993.641	
903.000		1022.76	
902.000		1351.41	
901.000		1166.00	
900.000		859.438	
899.000		902.276	
898.000		1168.67	
897.000		1206.49	
896.000		908.969	
895.000		850.067	
894.000		1070.62	
893.000		1054.89	
892.000		1028.11	
891.000		1039.16	
890.000		1128.51	
889.000		968.876	
888.000		1099.40	
887.000		964.859	
886.000		969.210	
885.000		868.474	
884.000		806.225	
883.000		974.900	
882.000		841.365	
881.000		1166.33	
880.000		872.155	
879.000		1005.69	
878.000		1049.20	
877.000		950.469	
876.000		872.155	
875.000		1344.38	
874.000		1269.08	
873.000		1262.38	
872.000		1110.78	
871.000		1022.09	
870.000		1036.81	
869.000		1060.58	
868.000		914.659	
867.000		1095.05	
866.000		968.206	
865.000		1035.48	
864.000		1167.34	
863.000		869.478	
862.000		992.972	
861.000		963.186	
860.000		1114.12	
859.000		1277.11	
858.000		1337.01	
857.000		941.767	
856.000		1132.53	
855.000		1121.49	
854.000		842.704	
853.000		996.319	
852.000		965.529	
851.000		868.139	
850.000		1282.80	
849.000		841.700	
848.000		898.929	
847.000		892.905	
846.000		1075.97	
845.000		1278.11	
844.000		1028.45	
843.000		764.726	
842.000		806.560	
841.000		746.653	
840.000		1110.44	
839.000		1079.32	
838.000		981.258	
837.000		1046.85	
836.000		836.680	
835.000		1261.38	
834.000		854.083	
833.000		1084.67	
832.000		919.344	
831.000		656.627	
830.000		835.676	
829.000		982.932	
828.000		723.226	
827.000		1123.16	
826.000		1011.71	
825.000		1018.41	
824.000		1209.50	
823.000		1257.36	
822.000		1048.86	
821.000		887.885	
820.000		965.529	
819.000		984.605	
818.000		1060.24	
817.000		759.705	
816.000		1105.76	
815.000		1078.65	
814.000		1135.88	
813.000		1001.34	
812.000		1014.73	
811.000		1222.22	
810.000		1257.36	
809.000		1142.24	
808.000		1023.09	
807.000		1082.66	
806.000		947.122	
805.000		788.487	
804.000		831.995	
803.000		943.106	
802.000		905.957	
801.000		998.996	
800.000		1193.78	
799.000		1051.87	
798.000		1038.49	
797.000		927.711	
796.000		1161.65	
795.000		950.134	
794.000		1124.83	
793.000		890.562	
792.000		1184.07	
791.000		820.616	
790.000		974.565	
789.000		1124.16	
788.000		926.372	
787.000		1189.42	
786.000		1236.61	
785.000		1026.77	
784.000		1102.41	
783.000		1145.58	
782.000		1132.86	
781.000		862.784	
780.000		1115.13	
779.000		963.521	
778.000		1101.41	
777.000		1067.94	
776.000		1032.13	
775.000		1194.11	
774.000		1072.62	
773.000		1120.15	
772.000		1352.07	
771.000		1249.33	
770.000		997.323	
769.000		1137.55	
768.000		1054.89	
767.000		966.533	
766.000		1023.76	
765.000		958.166	
764.000		1041.16	
763.000		1067.60	
762.000		1056.89	
761.000		840.027	
760.000		923.695	
759.000		1192.10	
758.000		1312.58	
757.000		803.213	
756.000		1181.39	
755.000		1144.58	
754.000		1008.37	
753.000		1012.72	
752.000		1256.02	
751.000		1233.27	
750.000		1203.82	
749.000		1331.66	
748.000		1155.62	
747.000		1148.93	
746.000		1268.74	
745.000		954.150	
744.000		1012.38	
743.000		872.825	
742.000		1080.66	
741.000		1072.96	
740.000		762.048	
739.000		1131.19	
738.000		876.506	
737.000		1006.69	
736.000		1181.06	
735.000		1024.43	
734.000		1287.82	
733.000		1011.04	
732.000		1049.20	
731.000		994.645	
730.000		951.138	
729.000		1030.12	
728.000		900.937	
727.000		1150.27	
726.000		1317.60	
725.000		1010.71	
724.000		1184.07	
723.000		1182.06	
722.000		986.948	
721.000		1090.70	
720.000		1033.47	
719.000		1072.62	
718.000		723.226	
717.000		1168.67	
716.000		929.719	
715.000		1264.06	
714.000		1166.33	
713.000		1279.45	
712.000		1095.05	
711.000		1041.83	
710.000		1037.48	
709.000		1061.58	
708.000		925.368	
707.000		1501.34	
706.000		1252.68	
705.000		719.545	
704.000		1003.01	
703.000		977.577	
702.000		1016.06	
701.000		1244.31	
700.000		998.661	
699.000		1006.02	
698.000		989.625	
697.000		1210.84	
696.000		985.609	
695.000		913.320	
694.000		1136.21	
693.000		1300.87	
692.000		1218.88	
691.000		933.066	
690.000		1185.07	
689.000		1437.75	
688.000		1076.97	
687.000		1289.16	
686.000		1207.16	
685.000		1319.61	
684.000		1034.14	
683.000		1357.43	
682.000		1055.22	
681.000		903.280	
680.000		1480.25	
679.000		1554.55	
678.000		1315.26	
677.000		1168.34	
676.000		998.661	
675.000		1135.54	
674.000		835.007	
673.000		1055.56	
672.000		1013.05	
671.000		1067.60	
670.000		1280.12	
669.000		1493.31	
668.000		1301.54	
667.000		1396.92	
666.000		1160.31	
665.000		1107.10	
664.000		1318.27	
663.000		1063.92	
662.000		956.158	
661.000		1067.27	
660.000		1416.33	
659.000		1432.73	
658.000		1254.69	
657.000		1227.91	
656.000		1444.44	
655.000		1151.27	
654.000		1224.90	
653.000		1365.80	
652.000		1454.48	
651.000		1279.79	
650.000		859.103	
649.000		1066.27	
648.000		1290.83	
647.000		1147.93	
646.000		993.641	
645.000		1268.74	
644.000		1268.41	
643.000		1022.42	
642.000		1284.14	
641.000		1142.90	
640.000		952.477	
639.000		964.190	
638.000		1161.31	
637.000		1071.95	
636.000		1229.92	
635.000		1439.76	
634.000		1052.21	
633.000		1108.77	
632.000		1177.04	
631.000		903.280	
630.000		1144.91	
629.000		1286.81	
628.000		1376.17	
627.000		1059.57	
626.000		1016.40	
625.000		1335.68	
624.000		1057.23	
623.000		1047.52	
622.000		1308.57	
621.000		1207.16	
620.000		1291.83	
619.000		1237.95	
618.000		1041.50	
617.000		1176.04	
616.000		1398.26	
615.000		1106.43	
614.000		1171.02	
613.000		1203.82	
612.000		959.505	
611.000		1215.86	
610.000		1265.73	
609.000		1109.10	
608.000		1405.96	
607.000		1170.68	
606.000		1238.29	
605.000		1486.28	
604.000		1777.44	
603.000		1512.38	
602.000		1627.51	
601.000		1390.56	
600.000		1101.74	
599.000		1032.46	
598.000		1185.07	
597.000		1074.63	
596.000		1231.93	
595.000		1068.27	
594.000		1207.50	
593.000		1233.60	
592.000		1235.94	
591.000		988.956	
590.000		748.661	
589.000		927.711	
588.000		934.070	
587.000		975.234	
586.000		1098.06	
585.000		749.331	
584.000		1050.20	
583.000		895.582	
582.000		1092.70	
581.000		999.665	
580.000		907.631	
579.000		1130.52	
578.000		1161.31	
577.000		1049.53	
576.000		1438.42	
575.000		1625.84	
574.000		1940.43	
573.000		1448.13	
572.000		1515.06	
571.000		947.791	
570.000		1048.19	
569.000		1015.73	
568.000		990.629	
567.000		751.004	
566.000		657.296	
565.000		813.922	
564.000		1010.37	
563.000		672.356	
562.000		891.566	
561.000		799.531	
560.000		827.309	
559.000		812.249	
558.000		975.904	
557.000		960.174	
556.000		998.996	
555.000		740.295	
554.000		790.161	
553.000		781.794	
552.000		896.921	
551.000		897.590	
550.000		846.386	
549.000		870.147	
548.000		576.640	
547.000		787.149	
546.000		627.510	
545.000		888.220	
544.000		961.847	
543.000		848.394	
542.000		795.850	
541.000		597.724	
540.000		816.934	
539.000		826.975	
538.000		849.398	
537.000		757.028	
536.000		810.910	
535.000		572.959	
534.000		814.592	
533.000		822.959	
532.000		884.203	
531.000		693.775	
530.000		852.410	
529.000		845.382	
528.000		728.916	
527.000		787.149	
526.000		871.151	
525.000		723.896	
524.000		799.531	
523.000		712.851	
522.000		644.913	
521.000		571.954	
520.000		772.758	
519.000		849.398	
518.000		903.949	
517.000		792.503	
516.000		663.655	
515.000		859.438	
514.000		816.600	
513.000		685.074	
512.000		792.503	
511.000		680.388	
510.000		709.839	
509.000		820.281	
508.000		728.246	
507.000		684.404	
506.000		892.236	
505.000		799.531	
504.000		630.187	
503.000		818.942	
502.000		1044.18	
501.000		772.758	
500.000		888.220	
499.000		703.146	
498.000		956.493	
497.000		901.272	
496.000		758.032	
495.000		961.847	
494.000		974.565	
493.000		558.568	
492.000		910.308	
491.000		690.094	
490.000		960.174	
489.000		763.052	
488.000		688.755	
487.000		880.857	
486.000		742.637	
485.000		953.481	
484.000		801.205	
483.000		871.151	
482.000		1149.60	
481.000		1179.38	
480.000		1176.04	
479.000		1030.79	
478.000		722.557	
477.000		899.933	
476.000		623.829	
475.000		920.348	
474.000		742.637	
473.000		858.768	
472.000		777.108	
471.000		535.141	
470.000		904.284	
469.000		743.976	
468.000		938.420	
467.000		874.163	
466.000		1141.90	
465.000		1026.10	
464.000		732.262	
463.000		984.605	
462.000		1005.35	
461.000		1118.47	
460.000		989.290	
459.000		1012.38	
458.000		655.288	
457.000		629.853	
456.000		957.162	
455.000		949.799	
454.000		983.601	
453.000		718.541	
452.000		547.858	
451.000		933.066	
450.000		664.993	
449.000		666.332	
448.000		752.677	
447.000		939.090	
446.000		765.730	
445.000		747.323	
444.000		1014.39	
443.000		873.159	
442.000		942.771	
441.000		767.403	
440.000		1084.67	
439.000		1094.38	
438.000		853.414	
437.000		680.388	
436.000		766.064	
435.000		976.238	
434.000		1027.44	
433.000		993.307	
432.000		1131.19	
431.000		838.353	
430.000		1037.48	
429.000		1045.52	
428.000		1299.53	
427.000		900.268	
426.000		989.960	
425.000		735.609	
424.000		896.586	
423.000		1061.91	
422.000		709.505	
421.000		980.254	
420.000		763.722	
419.000		942.771	
418.000		1153.61	
417.000		1016.73	
416.000		903.614	
415.000		655.288	
414.000		1014.73	
413.000		1037.15	
412.000		948.126	
411.000		696.118	
410.000		1015.39	
409.000		742.972	
408.000		537.483	
407.000		609.772	
406.000		893.574	
405.000		809.572	
404.000		782.463	
403.000		1062.25	
402.000		1043.84	
401.000		754.016	
400.000		866.131	
399.000		899.598	
398.000		1164.32	
397.000		1087.01	
396.000		731.593	
395.000		782.129	
394.000		1242.30	
393.000		1373.16	
392.000		1229.25	
391.000		957.497	
390.000		969.880	
389.000		976.573	
388.000		754.016	
387.000		639.224	
386.000		854.083	
385.000		920.348	
384.000		998.661	
383.000		983.266	
382.000		531.124	
381.000		691.767	
380.000		831.660	
379.000		869.478	
378.000		966.867	
377.000		1138.55	
376.000		1392.57	
375.000		2617.80	
374.000		2544.85	
373.000		1835.68	
372.000		964.525	
371.000		755.355	
370.000		1220.21	
369.000		3269.08	
368.000		3427.38	
367.000		1463.52	
366.000		322.289	
365.000		110.776	
364.000		266.399	
363.000		92.3695	
362.000		199.465	
361.000		125.502	
360.000		90.6961	
359.000		90.6961	
358.000		143.240	
357.000		191.098	
356.000		101.740	
355.000		142.236	
354.000		127.510	
353.000		157.965	
352.000		161.981	
351.000		68.2731	
350.000		168.005	
349.000		119.813	
348.000		148.594	
347.000		153.614	
346.000		19.4110	
345.000		78.6479	
344.000		63.9224	
343.000		51.5395	
342.000		97.7242	
341.000		309.572	
340.000		297.858	
339.000		108.768	
338.000		175.703	
337.000		117.805	
336.000		242.303	
335.000		85.0067	
334.000		54.8862	
333.000		179.719	
332.000		122.825	
331.000		49.1968	
330.000		187.751	
329.000		189.090	
328.000		213.521	
327.000		174.364	
326.000		265.730	
325.000		103.748	
324.000		80.3213	
323.000		110.776	
322.000		118.474	
321.000		47.8581	
320.000		97.3896	
319.000		87.6841	
318.000		165.328	
317.000		127.845	
316.000		157.296	
315.000		115.797	
314.000		89.3574	
313.000		103.079	
312.000		276.774	
311.000		171.352	
310.000		254.685	
309.000		291.165	
308.000		228.246	
307.000		126.171	
306.000		121.486	
305.000		268.742	
304.000		211.178	
303.000		209.170	
302.000		244.645	
301.000		229.585	
300.000		111.111	
299.000		122.825	
298.000		46.5194	
297.000		206.158	
296.000		175.368	
295.000		227.242	
294.000		111.780	
293.000		194.110	
292.000		145.248	
291.000		70.6158	
290.000		132.530	
289.000		124.833	
288.000		30.7898	
287.000		212.851	
286.000		320.281	
285.000		428.380	
284.000		632.530	
283.000		417.671	
282.000		131.861	
281.000		196.452	
280.000		236.948	
279.000		157.965	
278.000		238.956	
277.000		162.985	
276.000		123.494	
275.000		126.171	
274.000		48.1928	
273.000		158.300	
272.000		106.760	
271.000		268.072	
270.000		210.509	
269.000		107.764	
268.000		74.9665	
267.000		61.5797	
266.000		91.7001	
265.000		142.236	
264.000		164.993	
263.000		100.402	
262.000		165.997	
261.000		138.554	
260.000		95.0469	
259.000		237.282	
258.000		164.324	
257.000		205.823	
256.000		244.980	
255.000		200.803	
254.000		166.332	
253.000		152.276	
252.000		143.574	
251.000		241.299	
250.000		193.440	
249.000		121.151	
248.000		141.232	
247.000		60.2410	
246.000		153.949	
245.000		174.029	
244.000		258.701	
243.000		179.384	
242.000		158.635	
241.000		122.825	
240.000		79.6519	
239.000		149.933	
238.000		157.631	
237.000		95.0469	
236.000		164.659	
235.000		94.7122	
234.000		99.0629	
233.000		112.784	
232.000		83.6680	
231.000		103.748	
230.000		232.597	
229.000		209.505	
228.000		134.203	
227.000		129.183	
226.000		183.400	
225.000		278.112	
224.000		139.893	
223.000		162.985	
222.000		244.980	
221.000		156.961	
220.000		164.993	
219.000		234.605	
218.000		148.594	
217.000		112.784	
216.000		216.867	
215.000		300.870	
214.000		324.632	
213.000		164.659	
212.000		71.6198	
211.000		162.985	
210.000		106.760	
209.000		94.0428	
208.000		143.909	
207.000		66.5997	
206.000		112.784	
205.000		192.771	
204.000		297.189	
203.000		218.541	
202.000		339.692	
201.000		221.218	
200.000		150.602	
199.000		201.138	
198.000		81.9946	
197.000		310.576	
196.000		222.557	
195.000		241.299	
194.000		103.748	
193.000		221.553	
192.000		176.372	
191.000		81.6600	
190.000		91.0308	
189.000		216.867	
188.000		164.993	
187.000		193.440	
186.000		100.736	
185.000		33.1325	
184.000		266.399	
183.000		46.5194	
182.000		40.1606	
181.000		119.143	
180.000		215.863	
179.000		231.593	
178.000		249.331	
177.000		121.486	
176.000		219.545	
175.000		256.693	
174.000		195.783	
173.000		112.784	
172.000		151.941	
171.000		132.530	
170.000		188.420	
169.000		150.268	
168.000		178.715	
167.000		213.855	
166.000		229.585	
165.000		215.529	
164.000		205.823	
163.000		169.679	
162.000		259.371	
161.000		110.442	
160.000		131.861	
159.000		218.876	
158.000		165.663	
157.000		149.598	
156.000		208.835	
155.000		127.175	
154.000		125.837	
153.000		201.473	
152.000		223.561	
151.000		135.877	
150.000		109.438	
149.000		178.380	
148.000		139.893	
147.000		187.751	
146.000		102.075	
145.000		243.976	
144.000		123.494	
143.000		195.783	
142.000		209.839	
141.000		124.498	
140.000		105.422	
139.000		205.154	
138.000		253.681	
137.000		248.661	
136.000		237.617	
135.000		185.743	
134.000		172.691	
133.000		124.498	
132.000		229.585	
131.000		196.452	
130.000		179.050	
129.000		125.837	
128.000		218.541	
127.000		155.288	
126.000		185.074	
125.000		156.961	
124.000		204.485	
123.000		170.683	
122.000		99.3976	
121.000		189.759	
120.000		71.9545	
119.000		169.009	
118.000		98.7282	
117.000		192.102	
116.000		250.669	
115.000		180.723	
114.000		278.782	
113.000		209.839	
112.000		110.442	
111.000		108.099	
110.000		191.098	
109.000		222.557	
108.000		135.877	
107.000		167.671	
106.000		280.455	
105.000		182.396	
104.000		209.170	
103.000		209.170	
102.000		246.319	
101.000		102.075	
100.000		200.803	
99.0000		191.767	
98.0000		321.285	
97.0000		277.108	
96.0000		234.270	
95.0000		178.046	
94.0000		235.944	
93.0000		178.715	
92.0000		163.655	
91.0000		116.466	
90.0000		74.9665	
89.0000		240.629	
88.0000		267.068	
87.0000		296.185	
86.0000		193.775	
85.0000		186.747	
84.0000		104.418	
83.0000		195.114	
82.0000		152.276	
81.0000		123.829	
80.0000		190.763	
79.0000		165.997	
78.0000		149.598	
77.0000		134.538	
76.0000		96.7202	
75.0000		130.187	
74.0000		149.933	
73.0000		165.997	
72.0000		127.175	
71.0000		122.490	
70.0000		20.4150	
69.0000		175.033	
68.0000		114.458	
67.0000		200.803	
66.0000		190.763	
65.0000		193.775	
64.0000		204.819	
63.0000		181.058	
62.0000		180.054	
61.0000		271.084	
60.0000		244.980	
59.0000		209.170	
58.0000		219.880	
57.0000		178.046	
56.0000		271.419	
55.0000		192.771	
54.0000		80.6560	
53.0000		104.752	
52.0000		64.9264	
51.0000		43.1727	
50.0000		197.456	
49.0000		61.9143	
48.0000		64.2570	
47.0000		0.000000	
46.0000		0.000000	
45.0000		1.33869	
44.0000		61.5797	
43.0000		125.837	
42.0000		199.465	
41.0000		73.2932	
40.0000		80.3213	
39.0000		83.3333	
38.0000		71.2851	
37.0000		90.3614	
36.0000		111.111	
35.0000		72.6238	
34.0000		54.5515	
33.0000		75.3012	
32.0000		77.3092	
31.0000		60.5756	
30.0000		42.1687	
29.0000		97.3896	
28.0000		142.570	
27.0000		20.4150	
26.0000		32.1285	
25.0000		116.131	
24.0000		100.402	
23.0000		149.933	
22.0000		35.1406	
21.0000		29.4511	
20.0000		68.2731	
19.0000		140.228	
18.0000		80.6560	
17.0000		54.5515	
16.0000		28.4471	
15.0000		58.2329	
14.0000		121.821	
13.0000		97.0549	
12.0000		57.5636	
11.0000		56.8942	
10.0000		67.6037	
9.00000		164.659	
8.00000		237.282	
7.00000		354.083	
6.00000		484.940	
5.00000		540.161	
4.00000		298.862	
3.00000		165.328	
2.00000		39.8260	
1.00000		0.000000	
0.000000		0.000000	
-1.00000		0.000000	
-2.00000		0.000000	
-3.00000		0.000000	
-4.00000		0.000000	
-5.00000		0.000000	
-6.00000		0.000000	
-7.00000		0.000000	
-8.00000		0.000000	
-9.00000		0.000000	
-10.0000		0.000000	
